#
# Phonon bands from phonopy-FHI-aims!
#
# Reciprocal lattice vector   -1.102507    1.102507    1.102507 
# Reciprocal lattice vector    1.102507   -1.102507    1.102507 
# Reciprocal lattice vector    1.102507    1.102507   -1.102507 
#
# Start point for band 00, Gamma = (  0.00000,  0.00000,  0.00000) will be at real distance =     0.00000 
#   End point for band 00, Delta = (  0.00000,  0.25000,  0.25000) will be at real distance =     0.35355 
#
# Start point for band 01, Delta = (  0.00000,  0.25000,  0.25000) will be at real distance =     0.35355 
#   End point for band 01,     X = (  0.00000,  0.50000,  0.50000) will be at real distance =     0.70711 
#
# Start point for band 02,     X = (  0.00000,  0.50000,  0.50000) will be at real distance =     0.70711 
#   End point for band 02,     W = (  0.25000,  0.50000,  0.75000) will be at real distance =     1.06066 
#
# Start point for band 03,     W = (  0.25000,  0.50000,  0.75000) will be at real distance =     1.06066 
#   End point for band 03,     K = (  0.37500,  0.37500,  0.75000) will be at real distance =     1.23744 
#
# Start point for band 04,     K = (  0.37500,  0.37500,  0.75000) will be at real distance =     1.23744 
#   End point for band 04, Gamma = (  0.00000,  0.00000,  0.00000) will be at real distance =     2.15600 
#
# Start point for band 05, Gamma = (  0.00000,  0.00000,  0.00000) will be at real distance =     2.15600 
#   End point for band 05, Lambda = (  0.25000,  0.25000,  0.25000) will be at real distance =     2.58901 
#
# Start point for band 06, Lambda = (  0.25000,  0.25000,  0.25000) will be at real distance =     2.58901 
#   End point for band 06,     L = (  0.50000,  0.50000,  0.50000) will be at real distance =     3.02202 
#
# number of phonon branches : 6 
#
# q-distance(frac.)  frequencies(cm^-1) 
0.000000    -0.064727   -0.064727   -0.064727  154.064927  154.064927  154.064927 
0.003571     0.854797    0.854797    1.472419  154.065437  154.066691  154.066691 
0.007142     1.713145    1.713145    2.946837  154.066966  154.071984  154.071984 
0.010714     2.570432    2.570432    4.420509  154.069512  154.080801  154.080801 
0.014285     3.427151    3.427151    5.893657  154.073069  154.093134  154.093134 
0.017856     4.283303    4.283303    7.366218  154.077630  154.108972  154.108972 
0.021427     5.138807    5.138807    8.838079  154.083186  154.128303  154.128303 
0.024999     5.993560    5.993560   10.309116  154.089727  154.151110  154.151110 
0.028570     6.847450    6.847450   11.779200  154.097238  154.177373  154.177373 
0.032141     7.700363    7.700363   13.248199  154.105705  154.207071  154.207071 
0.035712     8.552180    8.552180   14.715981  154.115111  154.240177  154.240177 
0.039284     9.402786    9.402786   16.182413  154.125437  154.276665  154.276665 
0.042855    10.252063   10.252063   17.647364  154.136663  154.316502  154.316502 
0.046426    11.099892   11.099892   19.110699  154.148765  154.359657  154.359657 
0.049997    11.946158   11.946158   20.572288  154.161719  154.406091  154.406091 
0.053569    12.790744   12.790744   22.031998  154.175499  154.455766  154.455766 
0.057140    13.633534   13.633534   23.489698  154.190076  154.508639  154.508639 
0.060711    14.474413   14.474413   24.945257  154.205420  154.564667  154.564667 
0.064282    15.313267   15.313267   26.398544  154.221500  154.623802  154.623802 
0.067854    16.149982   16.149982   27.849430  154.238282  154.685994  154.685994 
0.071425    16.984445   16.984445   29.297786  154.255731  154.751192  154.751192 
0.074996    17.816545   17.816545   30.743482  154.273810  154.819339  154.819339 
0.078567    18.646171   18.646171   32.186392  154.292480  154.890380  154.890380 
0.082139    19.473213   19.473213   33.626386  154.311703  154.964254  154.964254 
0.085710    20.297562   20.297562   35.063340  154.331436  155.040900  155.040900 
0.089281    21.119110   21.119110   36.497127  154.351636  155.120254  155.120254 
0.092852    21.937752   21.937752   37.927623  154.372259  155.202249  155.202249 
0.096424    22.753381   22.753381   39.354702  154.393259  155.286818  155.286818 
0.099995    23.565894   23.565894   40.778242  154.414590  155.373890  155.373890 
0.103566    24.375187   24.375187   42.198121  154.436203  155.463393  155.463393 
0.107137    25.181158   25.181158   43.614216  154.458047  155.555252  155.555252 
0.110709    25.983708   25.983708   45.026407  154.480074  155.649393  155.649393 
0.114280    26.782737   26.782737   46.434574  154.502230  155.745736  155.745736 
0.117851    27.578148   27.578148   47.838599  154.524462  155.844204  155.844204 
0.121422    28.369844   28.369844   49.238364  154.546718  155.944715  155.944715 
0.124994    29.157730   29.157730   50.633752  154.568941  156.047186  156.047186 
0.128565    29.941712   29.941712   52.024648  154.591077  156.151534  156.151534 
0.132136    30.721699   30.721699   53.410937  154.613069  156.257675  156.257675 
0.135707    31.497601   31.497601   54.792505  154.634859  156.365520  156.365520 
0.139279    32.269326   32.269326   56.169240  154.656389  156.474984  156.474984 
0.142850    33.036790   33.036790   57.541031  154.677601  156.585978  156.585978 
0.146421    33.799904   33.799904   58.907768  154.698436  156.698412  156.698412 
0.149992    34.558585   34.558585   60.269342  154.718833  156.812196  156.812196 
0.153564    35.312749   35.312749   61.625644  154.738733  156.927238  156.927238 
0.157135    36.062315   36.062315   62.976569  154.758076  157.043448  157.043448 
0.160706    36.807204   36.807204   64.322012  154.776799  157.160731  157.160731 
0.164277    37.547337   37.547337   65.661867  154.794843  157.278996  157.278996 
0.167849    38.282638   38.282638   66.996032  154.812146  157.398149  157.398149 
0.171420    39.013030   39.013030   68.324405  154.828647  157.518097  157.518097 
0.174991    39.738442   39.738442   69.646887  154.844285  157.638745  157.638745 
0.178562    40.458800   40.458800   70.963377  154.858997  157.759999  157.759999 
0.182134    41.174036   41.174036   72.273778  154.872724  157.881765  157.881765 
0.185705    41.884079   41.884079   73.577994  154.885404  158.003949  158.003949 
0.189276    42.588864   42.588864   74.875929  154.896977  158.126457  158.126457 
0.192847    43.288325   43.288325   76.167489  154.907381  158.249195  158.249195 
0.196419    43.982398   43.982398   77.452581  154.916558  158.372070  158.372070 
0.199990    44.671021   44.671021   78.731114  154.924447  158.494989  158.494989 
0.203561    45.354134   45.354134   80.002999  154.930991  158.617859  158.617859 
0.207132    46.031678   46.031678   81.268145  154.936130  158.740589  158.740589 
0.210704    46.703596   46.703596   82.526467  154.939807  158.863086  158.863086 
0.214275    47.369831   47.369831   83.777876  154.941965  158.985261  158.985261 
0.217846    48.030331   48.030331   85.022290  154.942549  159.107024  159.107024 
0.221417    48.685042   48.685042   86.259624  154.941504  159.228286  159.228286 
0.224989    49.333914   49.333914   87.489795  154.938775  159.348960  159.348960 
0.228560    49.976898   49.976898   88.712723  154.934310  159.468958  159.468958 
0.232131    50.613946   50.613946   89.928328  154.928057  159.588196  159.588196 
0.235702    51.245013   51.245013   91.136531  154.919965  159.706590  159.706590 
0.239274    51.870053   51.870053   92.337256  154.909987  159.824056  159.824056 
0.242845    52.489023   52.489023   93.530425  154.898073  159.940514  159.940514 
0.246416    53.101884   53.101884   94.715964  154.884178  160.055884  160.055884 
0.249987    53.708594   53.708594   95.893800  154.868257  160.170086  160.170086 
0.253558    54.309115   54.309115   97.063859  154.850267  160.283046  160.283046 
0.257130    54.903412   54.903412   98.226070  154.830168  160.394688  160.394688 
0.260701    55.491448   55.491448   99.380363  154.807919  160.504938  160.504938 
0.264272    56.073191   56.073191  100.526668  154.783484  160.613726  160.613726 
0.267843    56.648607   56.648607  101.664917  154.756826  160.720983  160.720983 
0.271415    57.217667   57.217667  102.795042  154.727914  160.826640  160.826640 
0.274986    57.780342   57.780342  103.916977  154.696715  160.930634  160.930634 
0.278557    58.336603   58.336603  105.030656  154.663201  161.032900  161.032900 
0.282128    58.886424   58.886424  106.136013  154.627346  161.133378  161.133378 
0.285700    59.429782   59.429782  107.232985  154.589126  161.232009  161.232009 
0.289271    59.966653   59.966653  108.321508  154.548520  161.328737  161.328737 
0.292842    60.497015   60.497015  109.401518  154.505511  161.423506  161.423506 
0.296413    61.020848   61.020848  110.472953  154.460082  161.516266  161.516266 
0.299985    61.538133   61.538133  111.535751  154.412223  161.606967  161.606967 
0.303556    62.048854   62.048854  112.589847  154.361923  161.695562  161.695562 
0.307127    62.552993   62.552993  113.635182  154.309178  161.782006  161.782006 
0.310698    63.050537   63.050537  114.671691  154.253987  161.866257  161.866257 
0.314270    63.541473   63.541473  115.699312  154.196351  161.948276  161.948276 
0.317841    64.025789   64.025789  116.717981  154.136276  162.028026  162.028026 
0.321412    64.503475   64.503475  117.727634  154.073775  162.105472  162.105472 
0.324983    64.974523   64.974523  118.728205  154.008862  162.180582  162.180582 
0.328555    65.438926   65.438926  119.719628  153.941558  162.253328  162.253328 
0.332126    65.896677   65.896677  120.701833  153.871889  162.323683  162.323683 
0.335697    66.347773   66.347773  121.674750  153.799888  162.391623  162.391623 
0.339268    66.792211   66.792211  122.638303  153.725593  162.457127  162.457127 
0.342840    67.229989   67.229989  123.592416  153.649051  162.520176  162.520176 
0.346411    67.661107   67.661107  124.537006  153.570315  162.580754  162.580754 
0.349982    68.085568   68.085568  125.471987  153.489448  162.638849  162.638849 
0.353553    68.503374   68.503374  126.397265  153.406523  162.694449  162.694449 

0.353553    68.503374   68.503374  126.397265  153.406523  162.694449  162.694449 
0.357125    68.914530   68.914530  127.312739  153.321623  162.747548  162.747548 
0.360696    69.319042   69.319042  128.218301  153.234845  162.798139  162.798139 
0.364267    69.716917   69.716917  129.113830  153.146299  162.846220  162.846220 
0.367838    70.108164   70.108164  129.999192  153.056114  162.891792  162.891792 
0.371410    70.492795   70.492795  130.874239  152.964435  162.934856  162.934856 
0.374981    70.870820   70.870820  131.738802  152.871434  162.975419  162.975419 
0.378552    71.242254   71.242254  132.592690  152.777305  163.013488  163.013488 
0.382123    71.607112   71.607112  133.435685  152.682278  163.049074  163.049074 
0.385695    71.965410   71.965410  134.267530  152.586620  163.082188  163.082188 
0.389266    72.317167   72.317167  135.087930  152.490644  163.112848  163.112848 
0.392837    72.662403   72.662403  135.896531  152.394722  163.141070  163.141070 
0.396408    73.001139   73.001139  136.692918  152.299294  163.166874  163.166874 
0.399980    73.333398   73.333398  137.476586  152.204892  163.190284  163.190284 
0.403551    73.659204   73.659204  138.246925  152.112154  163.211323  163.211323 
0.407122    73.978585   73.978585  139.003189  152.021862  163.230020  163.230020 
0.410693    74.291567   74.291567  139.744456  151.934977  163.246403  163.246403 
0.414265    74.598181   74.598181  140.469575  151.852687  163.260504  163.260504 
0.417836    74.898458   74.898458  141.177103  151.776482  163.272356  163.272356 
0.421407    75.192430   75.192430  141.865213  151.708236  163.281995  163.281995 
0.424978    75.480132   75.480132  142.531583  151.650322  163.289458  163.289458 
0.428550    75.761601   75.761601  143.173259  151.605746  163.294785  163.294785 
0.432121    76.036874   76.036874  143.786496  151.578313  163.298018  163.298018 
0.435692    76.305991   76.305991  144.366602  151.572775  163.299199  163.299199 
0.439263    76.568993   76.568993  144.907849  151.594923  163.298373  163.298373 
0.442835    76.825924   76.825924  145.403552  151.651507  163.295587  163.295587 
0.446406    77.076827   77.076827  145.846499  151.749812  163.290889  163.290889 
0.449977    77.321751   77.321751  146.229863  151.896736  163.284328  163.284328 
0.453548    77.560742   77.560742  146.548568  152.097428  163.275955  163.275955 
0.457120    77.793852   77.793852  146.800697  152.353888  163.265823  163.265823 
0.460691    78.021131   78.021131  146.988213  152.664229  163.253986  163.253986 
0.464262    78.242633   78.242633  147.116575  153.023078  163.240497  163.240497 
0.467833    78.458413   78.458413  147.193433  153.422871  163.225413  163.225413 
0.471405    78.668528   78.668528  147.227128  153.855355  163.208792  163.208792 
0.474976    78.873037   78.873037  147.225555  154.312726  163.190690  163.190690 
0.478547    79.072000   79.072000  147.195574  154.788218  163.171167  163.171167 
0.482118    79.265478   79.265478  147.142845  155.276266  163.150282  163.150282 
0.485690    79.453535   79.453535  147.071906  155.772429  163.128096  163.128096 
0.489261    79.636236   79.636236  146.986346  156.273219  163.104669  163.104669 
0.492832    79.813649   79.813649  146.888990  156.775911  163.080063  163.080063 
0.496403    79.985840   79.985840  146.782068  157.278380  163.054340  163.054340 
0.499974    80.152881   80.152881  146.667354  157.778956  163.027562  163.027562 
0.503546    80.314841   80.314841  146.546268  158.276327  162.999792  162.999792 
0.507117    80.471795   80.471795  146.419962  158.769449  162.971093  162.971093 
0.510688    80.623816   80.623816  146.289381  159.257487  162.941527  162.941527 
0.514259    80.770980   80.770980  146.155308  159.739769  162.911158  162.911158 
0.517831    80.913364   80.913364  146.018405  160.215746  162.880049  162.880049 
0.521402    81.051045   81.051045  145.879231  160.684973  162.848263  162.848263 
0.524973    81.184104   81.184104  145.738270  161.147078  162.815862  162.815862 
0.528544    81.312620   81.312620  145.595945  161.601757  162.782910  162.782910 
0.532116    81.436675   81.436675  145.452628  162.048752  162.749468  162.749468 
0.535687    81.556352   81.556352  145.308650  162.487850  162.715599  162.715599 
0.539258    81.671734   81.671734  145.164311  162.681364  162.681364  162.918867 
0.542829    81.782905   81.782905  145.019883  162.646824  162.646824  163.341651 
0.546401    81.889951   81.889951  144.875615  162.612039  162.612039  163.756068 
0.549972    81.992958   81.992958  144.731739  162.577070  162.577070  164.162007 
0.553543    82.092011   82.092011  144.588470  162.541975  162.541975  164.559370 
0.557114    82.187197   82.187197  144.446010  162.506812  162.506812  164.948073 
0.560686    82.278605   82.278605  144.304549  162.471640  162.471640  165.328044 
0.564257    82.366321   82.366321  144.164268  162.436516  162.436516  165.699219 
0.567828    82.450433   82.450433  144.025338  162.401494  162.401494  166.061544 
0.571399    82.531028   82.531028  143.887924  162.366630  162.366630  166.414971 
0.574971    82.608196   82.608196  143.752184  162.331977  162.331977  166.759457 
0.578542    82.682023   82.682023  143.618268  162.297589  162.297589  167.094966 
0.582113    82.752596   82.752596  143.486322  162.263518  162.263518  167.421466 
0.585684    82.820004   82.820004  143.356488  162.229814  162.229814  167.738927 
0.589256    82.884332   82.884332  143.228901  162.196526  162.196526  168.047326 
0.592827    82.945666   82.945666  143.103692  162.163702  162.163702  168.346640 
0.596398    83.004091   83.004091  142.980989  162.131391  162.131391  168.636850 
0.599969    83.059692   83.059692  142.860916  162.099638  162.099638  168.917939 
0.603541    83.112551   83.112551  142.743591  162.068486  162.068486  169.189891 
0.607112    83.162752   83.162752  142.629131  162.037981  162.037981  169.452693 
0.610683    83.210375   83.210375  142.517648  162.008163  162.008163  169.706334 
0.614254    83.255498   83.255498  142.409249  161.979073  161.979073  169.950803 
0.617826    83.298201   83.298201  142.304039  161.950750  161.950750  170.186091 
0.621397    83.338560   83.338560  142.202121  161.923232  161.923232  170.412190 
0.624968    83.376649   83.376649  142.103591  161.896556  161.896556  170.629094 
0.628539    83.412540   83.412540  142.008543  161.870756  161.870756  170.836795 
0.632111    83.446305   83.446305  141.917069  161.845867  161.845867  171.035290 
0.635682    83.478011   83.478011  141.829254  161.821920  161.821920  171.224572 
0.639253    83.507725   83.507725  141.745183  161.798945  161.798945  171.404637 
0.642824    83.535511   83.535511  141.664934  161.776973  161.776973  171.575483 
0.646396    83.561429   83.561429  141.588584  161.756030  161.756030  171.737106 
0.649967    83.585539   83.585539  141.516204  161.736144  161.736144  171.889503 
0.653538    83.607896   83.607896  141.447863  161.717339  161.717339  172.032673 
0.657109    83.628554   83.628554  141.383626  161.699637  161.699637  172.166612 
0.660681    83.647562   83.647562  141.323552  161.683062  161.683062  172.291320 
0.664252    83.664969   83.664969  141.267698  161.667633  161.667633  172.406794 
0.667823    83.680816   83.680816  141.216117  161.653369  161.653369  172.513035 
0.671394    83.695147   83.695147  141.168857  161.640287  161.640287  172.610039 
0.674966    83.707997   83.707997  141.125963  161.628404  161.628404  172.697807 
0.678537    83.719402   83.719402  141.087476  161.617733  161.617733  172.776339 
0.682108    83.729392   83.729392  141.053430  161.608287  161.608287  172.845632 
0.685679    83.737994   83.737994  141.023859  161.600078  161.600078  172.905687 
0.689251    83.745232   83.745232  140.998790  161.593116  161.593116  172.956504 
0.692822    83.751127   83.751127  140.978247  161.587408  161.587408  172.998082 
0.696393    83.755694   83.755694  140.962249  161.582961  161.582961  173.030420 
0.699964    83.758947   83.758947  140.950811  161.579781  161.579781  173.053519 
0.703536    83.760896   83.760896  140.943944  161.577872  161.577872  173.067379 
0.707107    83.761544   83.761544  140.941654  161.577235  161.577235  173.071998 

0.707107    83.761544   83.761544  140.941654  161.577235  161.577235  173.071998 
0.710678    83.768391   83.770620  140.940300  161.574658  161.579066  173.072053 
0.714249    83.788924   83.797839  140.936236  161.566928  161.584556  173.072216 
0.717821    83.823124   83.843169  140.929458  161.554043  161.593703  173.072488 
0.721392    83.870957   83.906561  140.919957  161.536003  161.606499  173.072869 
0.724963    83.932377   83.987944  140.907723  161.512807  161.622934  173.073358 
0.728534    84.007325   84.087228  140.892740  161.484451  161.642996  173.073956 
0.732106    84.095728   84.204304  140.874993  161.450935  161.666670  173.074663 
0.735677    84.197502   84.339045  140.854459  161.412256  161.693939  173.075478 
0.739248    84.312549   84.491302  140.831117  161.368410  161.724781  173.076402 
0.742819    84.440761   84.660912  140.804940  161.319394  161.759174  173.077433 
0.746390    84.582015   84.847692  140.775898  161.265205  161.797092  173.078571 
0.749962    84.736180   85.051442  140.743960  161.205838  161.838507  173.079815 
0.753533    84.903111   85.271948  140.709091  161.141289  161.883388  173.081165 
0.757104    85.082654   85.508978  140.671255  161.071553  161.931701  173.082619 
0.760675    85.274644   85.762286  140.630410  160.996626  161.983410  173.084175 
0.764247    85.478906   86.031612  140.586517  160.916501  162.038476  173.085830 
0.767818    85.695256   86.316683  140.539530  160.831174  162.096859  173.087584 
